Units are: observed wavelength (Ang), observed flux (10^-15 erg/s/cm^2/Ang)
       3343.2116       7.3982930
       3345.1586       7.3336320
       3347.1056       7.2786820
       3349.0526       7.4256140
       3350.9996       7.4058380
       3352.9466       7.4492780
       3354.8937       7.3397750
       3356.8407       7.2465710
       3358.7877       7.3974420
       3360.7347       7.4343870
       3362.6817       7.2551740
       3364.6287       6.9889490
       3366.5757       6.7794070
       3368.5227       6.8032490
       3370.4697       6.6885110
       3372.4167       6.7480870
       3374.3637       6.6725750
       3376.3108       6.8846740
       3378.2578       6.9385900
       3380.2048       7.0141170
       3382.1518       6.8050710
       3384.0988       6.7845390
       3386.0458       6.8143990
       3387.9928       6.7709320
       3389.9398       6.8650720
       3391.8868       6.8382200
       3393.8338       7.0292260
       3395.7808       7.0377790
       3397.7279       6.8324490
       3399.6749       6.8183980
       3401.6219       7.0114550
       3403.5689       6.9717880
       3405.5159       7.1049530
       3407.4629       7.1102000
       3409.4099       7.1523000
       3411.3569       7.0843530
       3413.3039       7.0939740
       3415.2509       7.1362920
       3417.1979       7.1460870
       3419.1450       7.1280090
       3421.0920       7.1677910
       3423.0390       7.0547340
       3424.9860       6.9239250
       3426.9330       6.9823920
       3428.8800       6.9448900
       3430.8270       6.9553280
       3432.7740       6.7674750
       3434.7210       6.6561790
       3436.6680       6.7588820
       3438.6150       6.7406870
       3440.5621       6.5812590
       3442.5091       6.5630680
       3444.4561       6.5727040
       3446.4031       6.5515520
       3448.3501       6.5757980
       3450.2971       6.5511510
       3452.2441       6.6815470
       3454.1911       6.5212260
       3456.1381       6.4913220
       3458.0851       6.5421640
       3460.0321       6.6521660
       3461.9792       6.4783830
       3463.9262       6.3368330
       3465.8732       6.3118540
       3467.8202       6.2511750
       3469.7672       6.2761860
       3471.7142       6.1306220
       3473.6612       6.0756500
       3475.6082       5.9995390
       3477.5552       6.0034600
       3479.5022       5.9272010
       3481.4492       6.0436370
       3483.3963       6.1399080
       3485.3433       6.0186430
       3487.2903       5.9687580
       3489.2373       5.9076400
       3491.1843       6.0607110
       3493.1313       6.1710960
       3495.0783       6.2225110
       3497.0253       6.1814450
       3498.9723       6.2861120
       3500.9193       6.2851250
       3502.8663       6.2180330
       3504.8134       6.2612640
       3506.7604       6.3794130
       3508.7074       6.3399540
       3510.6544       6.2854620
       3512.6014       6.2752240
       3514.5484       6.4077090
       3516.4954       6.4026410
       3518.4424       6.4272770
       3520.3894       6.2845720
       3522.3364       6.1878630
       3524.2835       6.2799300
       3526.2305       6.2452390
       3528.1775       6.3902250
       3530.1245       6.3459100
       3532.0715       6.2402080
       3534.0185       6.2562750
       3535.9655       6.2439660
       3537.9125       6.1962430
       3539.8595       6.2193430
       3541.8065       6.2051720
       3543.7535       6.1949280
       3545.7006       6.1998260
       3547.6476       6.0839560
       3549.5946       6.0594920
       3551.5416       6.0732680
       3553.4886       6.0691230
       3555.4356       6.1140620
       3557.3826       6.1280850
       3559.3296       6.0458980
       3561.2766       5.9841400
       3563.2236       5.9337100
       3565.1706       6.0697870
       3567.1177       6.0660270
       3569.0647       6.0115080
       3571.0117       5.9537630
       3572.9587       5.9501220
       3574.9057       5.7695140
       3576.8527       5.7590820
       3578.7997       5.7064960
       3580.7467       5.7039450
       3582.6937       5.6888240
       3584.6407       5.6545630
       3586.5877       5.6821210
       3588.5348       5.5917740
       3590.4818       5.5262110
       3592.4288       5.4893200
       3594.3758       5.5452000
       3596.3228       5.4948950
       3598.2698       5.2769650
       3600.2168       5.2495680
       3602.1638       5.2306670
       3604.1108       5.2791080
       3606.0578       5.2408610
       3608.0048       5.0422850
       3609.9519       5.0812400
       3611.8989       5.1332810
       3613.8459       5.0451770
       3615.7929       5.0510110
       3617.7399       5.0744480
       3619.6869       5.0425610
       3621.6339       5.0046370
       3623.5809       4.9847120
       3625.5279       4.9937190
       3627.4749       4.9953650
       3629.4219       5.1208850
       3631.3690       5.1681640
       3633.3160       5.1824960
       3635.2630       5.2209590
       3637.2100       5.3055040
       3639.1570       5.3401700
       3641.1040       5.3617250
       3643.0510       5.4354400
       3644.9980       5.5301280
       3646.9450       5.4427150
       3648.8920       5.5101350
       3650.8390       5.5728690
       3652.7861       5.5669580
       3654.7331       5.5785840
       3656.6801       5.5199570
       3658.6271       5.5768870
       3660.5741       5.4810880
       3662.5211       5.5425220
       3664.4681       5.5443010
       3666.4151       5.5718190
       3668.3621       5.5716810
       3670.3091       5.5785160
       3672.2561       5.6265490
       3674.2032       5.5420810
       3676.1502       5.5025490
       3678.0972       5.4043550
       3680.0442       5.4604610
       3681.9912       5.4205620
       3683.9382       5.3226810
       3685.8852       5.2891370
       3687.8322       5.2059860
       3689.7792       5.1633820
       3691.7262       5.0735740
       3693.6732       4.9948910
       3695.6203       4.8179810
       3697.5673       4.7366730
       3699.5143       4.7004720
       3701.4613       4.7134300
       3703.4083       4.5386080
       3705.3553       4.4445170
       3707.3023       4.3940530
       3709.2493       4.2885420
       3711.1963       4.2505880
       3713.1433       4.2763160
       3715.0903       4.2643160
       3717.0374       4.2207320
       3718.9844       4.2348830
       3720.9314       4.2079180
       3722.8784       4.1515680
       3724.8254       4.1599550
       3726.7724       4.2253440
       3728.7194       4.2771630
       3730.6664       4.4342470
       3732.6134       4.3926540
       3734.5604       4.3574730
       3736.5074       4.3441650
       3738.4545       4.3903740
       3740.4015       4.2777570
       3742.3485       4.3504540
       3744.2955       4.2459420
       3746.2425       4.1978120
       3748.1895       4.2106800
       3750.1365       4.1099240
       3752.0835       3.9960850
       3754.0305       3.9451330
       3755.9775       3.8829510
       3757.9245       3.7229190
       3759.8716       3.7104710
       3761.8186       3.6889020
       3763.7656       3.5696030
       3765.7126       3.5155940
       3767.6596       3.4367720
       3769.6066       3.4966100
       3771.5536       3.3993050
       3773.5006       3.3831350
       3775.4476       3.3960160
       3777.3946       3.2934530
       3779.3417       3.3265770
       3781.2887       3.2409210
       3783.2357       3.1954080
       3785.1827       3.2352600
       3787.1297       3.3080570
       3789.0767       3.3719900
       3791.0237       3.3187050
       3792.9707       3.3974540
       3794.9177       3.4182190
       3796.8647       3.4875040
       3798.8117       3.4869270
       3800.7588       3.6007760
       3802.7058       3.6367290
       3804.6528       3.6741470
       3806.5998       3.7110870
       3808.5468       3.6660290
       3810.4938       3.7359050
       3812.4408       3.7873530
       3814.3878       3.7620150
       3816.3348       3.7769200
       3818.2818       3.7323580
       3820.2288       3.8231460
       3822.1759       3.9316850
       3824.1229       4.0879420
       3826.0699       4.1536720
       3828.0169       4.1109390
       3829.9639       4.2039910
       3831.9109       4.3391400
       3833.8579       4.3578630
       3835.8049       4.3523230
       3837.7519       4.4678290
       3839.6989       4.5297150
       3841.6459       4.5331480
       3843.5930       4.5783990
       3845.5400       4.4882230
       3847.4870       4.5445680
       3849.4340       4.6659720
       3851.3810       4.5863950
       3853.3280       4.5910160
       3855.2750       4.5996740
       3857.2220       4.6235090
       3859.1690       4.6077560
       3861.1160       4.6152750
       3863.0630       4.6391970
       3865.0101       4.6376640
       3866.9571       4.6487080
       3868.9041       4.6272910
       3870.8511       4.6366890
       3872.7981       4.6015370
       3874.7451       4.6759320
       3876.6921       4.7057910
       3878.6391       4.6192100
       3880.5861       4.7240460
       3882.5331       4.7045450
       3884.4801       4.6884370
       3886.4272       4.6619140
       3888.3742       4.6673010
       3890.3212       4.6778480
       3892.2682       4.6810950
       3894.2152       4.7198940
       3896.1622       4.6456060
       3898.1092       4.5805580
       3900.0562       4.5773060
       3902.0032       4.5787900
       3903.9502       4.5715830
       3905.8972       4.5385120
       3907.8443       4.5296270
       3909.7913       4.5649970
       3911.7383       4.5217130
       3913.6853       4.5104850
       3915.6323       4.4969090
       3917.5793       4.5223480
       3919.5263       4.5216860
       3921.4733       4.4637690
       3923.4203       4.5231270
       3925.3673       4.6039710
       3927.3143       4.5354900
       3929.2614       4.4141290
       3931.2084       4.3631740
       3933.1554       4.3643490
       3935.1024       4.4677610
       3937.0494       4.4870200
       3938.9964       4.4950330
       3940.9434       4.5225280
       3942.8904       4.5116620
       3944.8374       4.4923650
       3946.7844       4.4662370
       3948.7314       4.3396260
       3950.6785       4.2703470
       3952.6255       4.3433330
       3954.5725       4.3719300
       3956.5195       4.4008430
       3958.4665       4.4150930
       3960.4135       4.3942940
       3962.3605       4.2983500
       3964.3075       4.1395410
       3966.2545       4.1076150
       3968.2015       4.0497840
       3970.1485       4.0494600
       3972.0956       4.0748460
       3974.0426       4.0827240
       3975.9896       4.0171880
       3977.9366       3.9943850
       3979.8836       3.9234200
       3981.8306       3.8751320
       3983.7776       3.8141360
       3985.7246       3.7568590
       3987.6716       3.7702600
       3989.6186       3.7940460
       3991.5656       3.9008950
       3993.5127       3.8556310
       3995.4597       3.8260130
       3997.4067       3.9125070
       3999.3537       3.9174320
       4001.3007       3.9290950
       4003.2477       3.9356760
       4005.1947       3.8274560
       4007.1417       3.8344330
       4009.0887       3.8633700
       4011.0357       3.9134970
       4012.9828       3.9144010
       4014.9298       3.8417370
       4016.8768       3.8811960
       4018.8238       3.8652600
       4020.7708       3.8832280
       4022.7178       3.9012030
       4024.6648       3.9015550
       4026.6118       3.9267410
       4028.5588       3.8643770
       4030.5058       3.9319760
       4032.4528       3.9333880
       4034.3999       3.9137810
       4036.3469       3.9528000
       4038.2939       4.0186740
       4040.2409       3.9719830
       4042.1879       3.9320150
       4044.1349       4.0030940
       4046.0819       4.0961340
       4048.0289       4.0369590
       4049.9759       4.0122660
       4051.9229       4.0618870
       4053.8699       4.0186020
       4055.8170       4.0174790
       4057.7640       3.9900580
       4059.7110       4.0201950
       4061.6580       3.9400540
       4063.6050       3.9156820
       4065.5520       3.9074280
       4067.4990       3.9420320
       4069.4460       3.9259300
       4071.3930       3.8866420
       4073.3400       3.8984720
       4075.2870       3.9149630
       4077.2341       3.8575590
       4079.1811       3.9166340
       4081.1281       3.8717850
       4083.0751       3.9131480
       4085.0221       3.8099020
       4086.9691       3.7940100
       4088.9161       3.8347360
       4090.8631       3.8422960
       4092.8101       3.7806170
       4094.7571       3.7526080
       4096.7041       3.7529650
       4098.6512       3.7014120
       4100.5982       3.6316490
       4102.5452       3.6176030
       4104.4922       3.6206870
       4106.4392       3.5136890
       4108.3862       3.5325930
       4110.3332       3.5351490
       4112.2802       3.5501080
       4114.2272       3.5553300
       4116.1742       3.5019560
       4118.1212       3.5282000
       4120.0683       3.6033770
       4122.0153       3.5975340
       4123.9623       3.5696410
       4125.9093       3.5826760
       4127.8563       3.6202090
       4129.8033       3.6630570
       4131.7503       3.6833820
       4133.6973       3.6846650
       4135.6443       3.7266000
       4137.5913       3.7904300
       4139.5383       3.7789450
       4141.4854       3.7895260
       4143.4324       3.7831960
       4145.3794       3.7614810
       4147.3264       3.8048870
       4149.2734       3.7636080
       4151.2204       3.7212030
       4153.1674       3.7210330
       4155.1144       3.7907410
       4157.0614       3.7523890
       4159.0084       3.7016390
       4160.9554       3.7046500
       4162.9025       3.7605910
       4164.8495       3.7541650
       4166.7965       3.7469560
       4168.7435       3.6998870
       4170.6905       3.6835690
       4172.6375       3.6234040
       4174.5845       3.6215990
       4176.5315       3.6430930
       4178.4785       3.5567230
       4180.4255       3.5258180
       4182.3725       3.5446610
       4184.3196       3.5006040
       4186.2666       3.5075330
       4188.2136       3.4911950
       4190.1606       3.4795980
       4192.1076       3.4316740
       4194.0546       3.3881520
       4196.0016       3.3601380
       4197.9486       3.4184920
       4199.8956       3.4218340
       4201.8426       3.3692620
       4203.7896       3.3944650
       4205.7367       3.3520090
       4207.6837       3.3798930
       4209.6307       3.3737390
       4211.5777       3.3760660
       4213.5247       3.3612170
       4215.4717       3.3315830
       4217.4187       3.3596520
       4219.3657       3.3308130
       4221.3127       3.3349450
       4223.2597       3.3420670
       4225.2067       3.3364800
       4227.1538       3.3081530
       4229.1008       3.3037040
       4231.0478       3.3479590
       4232.9948       3.3788360
       4234.9418       3.3721600
       4236.8888       3.3327590
       4238.8358       3.3289140
       4240.7828       3.3445290
       4242.7298       3.3446470
       4244.6768       3.3827030
       4246.6238       3.3651520
       4248.5709       3.4135010
       4250.5179       3.3766240
       4252.4649       3.3238490
       4254.4119       3.3051020
       4256.3589       3.3301810
       4258.3059       3.3647530
       4260.2529       3.3199400
       4262.1999       3.3140120
       4264.1469       3.3665650
       4266.0939       3.3351790
       4268.0410       3.2675910
       4269.9880       3.2729200
       4271.9350       3.2533880
       4273.8820       3.1881680
       4275.8290       3.1807090
       4277.7760       3.1681190
       4279.7230       3.1331980
       4281.6700       3.0785400
       4283.6170       3.1178240
       4285.5640       3.0835290
       4287.5110       3.0568900
       4289.4581       3.0026800
       4291.4051       2.9686330
       4293.3521       3.0010990
       4295.2991       2.9806360
       4297.2461       2.9469860
       4299.1931       2.8869880
       4301.1401       2.8139400
       4303.0871       2.8063610
       4305.0341       2.7493740
       4306.9811       2.6917150
       4308.9281       2.6928430
       4310.8752       2.7268690
       4312.8222       2.6914790
       4314.7692       2.6749940
       4316.7162       2.6906200
       4318.6632       2.7038130
       4320.6102       2.7586410
       4322.5572       2.8245190
       4324.5042       2.7992870
       4326.4512       2.8347950
       4328.3982       2.8853030
       4330.3452       2.8681560
       4332.2923       2.8531670
       4334.2393       2.9074840
       4336.1863       2.9440040
       4338.1333       2.9755170
       4340.0803       3.0040850
       4342.0273       3.0264850
       4343.9743       3.0019660
       4345.9213       2.9707820
       4347.8683       3.0537130
       4349.8153       3.1235540
       4351.7623       3.1419290
       4353.7094       3.1360050
       4355.6564       3.1497820
       4357.6034       3.1552440
       4359.5504       3.1456570
       4361.4974       3.1732700
       4363.4444       3.1433070
       4365.3914       3.1105530
       4367.3384       3.1098350
       4369.2854       3.1059080
       4371.2324       3.1066450
       4373.1794       3.0807220
       4375.1265       3.1195240
       4377.0735       3.1251850
       4379.0205       3.1060350
       4380.9675       3.0748340
       4382.9145       3.0744480
       4384.8615       3.0885510
       4386.8085       3.0680220
       4388.7555       3.0738910
       4390.7025       3.0921780
       4392.6495       3.0841230
       4394.5965       3.0545620
       4396.5436       3.0688940
       4398.4906       3.0766750
       4400.4376       3.0848780
       4402.3846       3.0256710
       4404.3316       3.0004310
       4406.2786       3.0354790
       4408.2256       3.0762570
       4410.1726       3.0507790
       4412.1196       3.0575350
       4414.0666       3.0447520
       4416.0136       2.9936710
       4417.9607       3.0341490
       4419.9077       3.0909620
       4421.8547       3.0523250
       4423.8017       3.0889320
       4425.7487       3.1151840
       4427.6957       3.1166940
       4429.6427       3.0843350
       4431.5897       3.1220120
       4433.5367       3.1338800
       4435.4837       3.1517650
       4437.4307       3.1569290
       4439.3778       3.2074770
       4441.3248       3.1572780
       4443.2718       3.1588320
       4445.2188       3.1682930
       4447.1658       3.1652080
       4449.1128       3.1368180
       4451.0598       3.1418760
       4453.0068       3.1734880
       4454.9538       3.1799650
       4456.9008       3.1422770
       4458.8478       3.1681130
       4460.7949       3.1191390
       4462.7419       3.1447550
       4464.6889       3.2026510
       4466.6359       3.1730110
       4468.5829       3.1547230
       4470.5299       3.1623250
       4472.4769       3.1223960
       4474.4239       3.0983610
       4476.3709       3.1069550
       4478.3179       3.0869510
       4480.2649       3.1017270
       4482.2120       3.0674640
       4484.1590       3.0734270
       4486.1060       3.0254630
       4488.0530       3.0398890
       4490.0000       3.0644540
       4491.9470       3.0659460
       4493.8940       3.0751680
       4495.8410       3.0283450
       4497.7880       3.0082930
       4499.7350       3.0379210
       4501.6820       3.0316910
       4503.6291       3.0240550
       4505.5761       3.0946880
       4507.5231       3.0493550
       4509.4701       3.0014370
       4511.4171       3.0407470
       4513.3641       3.0407260
       4515.3111       3.0383500
       4517.2581       3.0267140
       4519.2051       3.0478810
       4521.1521       3.0785900
       4523.0992       3.0311830
       4525.0462       3.0260060
       4526.9932       3.0563410
       4528.9402       3.0364800
       4530.8872       3.0651930
       4532.8342       3.0573910
       4534.7812       3.0535860
       4536.7282       3.0850330
       4538.6752       3.0241450
       4540.6222       3.0267760
       4542.5692       3.0074570
       4544.5163       2.9927540
       4546.4633       3.0349800
       4548.4103       3.0356200
       4550.3573       2.9842910
       4552.3043       3.0032100
       4554.2513       2.9490030
       4556.1983       2.9511640
       4558.1453       2.9733060
       4560.0923       2.9944560
       4562.0393       2.9727310
       4563.9863       2.9613150
       4565.9334       2.9675600
       4567.8804       2.9185860
       4569.8274       2.9233700
       4571.7744       2.9171300
       4573.7214       2.9266650
       4575.6684       2.9415390
       4577.6154       2.9478790
       4579.5624       2.9111160
       4581.5094       2.8844720
       4583.4564       2.9676820
       4585.4034       2.9576960
       4587.3505       2.9448180
       4589.2975       2.9298800
       4591.2445       2.9571760
       4593.1915       2.9366680
       4595.1385       2.9298990
       4597.0855       2.9716770
       4599.0325       2.9639470
       4600.9795       2.9275360
       4602.9265       2.9168240
       4604.8735       2.9173340
       4606.8205       2.9096070
       4608.7676       2.9368170
       4610.7146       2.9153480
       4612.6616       2.8896790
       4614.6086       2.8951590
       4616.5556       2.8479330
       4618.5026       2.8667330
       4620.4496       2.8424280
       4622.3966       2.7913060
       4624.3436       2.8246710
       4626.2906       2.7782370
       4628.2376       2.7355390
       4630.1847       2.7584110
       4632.1317       2.7373310
       4634.0787       2.6964440
       4636.0257       2.6965300
       4637.9727       2.6569090
       4639.9197       2.6239000
       4641.8667       2.6337240
       4643.8137       2.6462630
       4645.7607       2.6268460
       4647.7077       2.5883070
       4649.6547       2.5781420
       4651.6018       2.5919170
       4653.5488       2.5640640
       4655.4958       2.5744360
       4657.4428       2.5889720
       4659.3898       2.5658160
       4661.3368       2.6212160
       4663.2838       2.6038490
       4665.2308       2.6149050
       4667.1778       2.5983780
       4669.1248       2.5930590
       4671.0718       2.5831840
       4673.0189       2.5652540
       4674.9659       2.5821990
       4676.9129       2.5932030
       4678.8599       2.5779740
       4680.8069       2.5870750
       4682.7539       2.5921170
       4684.7009       2.6101790
       4686.6479       2.6036890
       4688.5949       2.5598800
       4690.5419       2.5001120
       4692.4889       2.4689810
       4694.4360       2.4922840
       4696.3830       2.4660170
       4698.3300       2.4441360
       4700.2770       2.4190260
       4702.2240       2.3825090
       4704.1710       2.3953420
       4706.1180       2.3893520
       4708.0650       2.3952840
       4710.0120       2.3795440
       4711.9590       2.3549670
       4713.9060       2.3422580
       4715.8531       2.3297090
       4717.8001       2.3192640
       4719.7471       2.3079400
       4721.6941       2.2989930
       4723.6411       2.3020260
       4725.5881       2.2616040
       4727.5351       2.2545000
       4729.4821       2.2449010
       4731.4291       2.2281850
       4733.3761       2.2266050
       4735.3231       2.2301160
       4737.2702       2.2364130
       4739.2172       2.2700020
       4741.1642       2.2369640
       4743.1112       2.2819040
       4745.0582       2.2437280
       4747.0052       2.2633570
       4748.9522       2.2357510
       4750.8992       2.2606050
       4752.8462       2.2991500
       4754.7932       2.3069460
       4756.7402       2.2657290
       4758.6873       2.2684140
       4760.6343       2.2782660
       4762.5813       2.3199660
       4764.5283       2.2839470
       4766.4753       2.2924930
       4768.4223       2.3184720
       4770.3693       2.3547330
       4772.3163       2.3234030
       4774.2633       2.3220620
       4776.2103       2.3272450
       4778.1574       2.3279900
       4780.1044       2.2928810
       4782.0514       2.3119680
       4783.9984       2.3134550
       4785.9454       2.2651440
       4787.8924       2.2559030
       4789.8394       2.2621270
       4791.7864       2.2233690
       4793.7334       2.2356380
       4795.6804       2.2471880
       4797.6274       2.2086310
       4799.5745       2.1770710
       4801.5215       2.1912480
       4803.4685       2.1772080
       4805.4155       2.1790600
       4807.3625       2.1889330
       4809.3095       2.1901030
       4811.2565       2.1542040
       4813.2035       2.1658570
       4815.1505       2.1673830
       4817.0975       2.1405290
       4819.0445       2.1471530
       4820.9916       2.1195300
       4822.9386       2.0993170
       4824.8856       2.1297550
       4826.8326       2.1491980
       4828.7796       2.1317630
       4830.7266       2.1022100
       4832.6736       2.0915750
       4834.6206       2.0894720
       4836.5676       2.1370920
       4838.5146       2.0878130
       4840.4616       2.0895680
       4842.4087       2.1079150
       4844.3557       2.0809290
       4846.3027       2.1041450
       4848.2497       2.1098230
       4850.1967       2.0991590
       4852.1437       2.1266080
       4854.0907       2.1182500
       4856.0377       2.1130860
       4857.9847       2.1136520
       4859.9317       2.0910890
       4861.8787       2.0956420
       4863.8258       2.1137450
       4865.7728       2.1243760
       4867.7198       2.1394320
       4869.6668       2.1501260
       4871.6138       2.1587340
       4873.5608       2.1703810
       4875.5078       2.1887130
       4877.4548       2.1646970
       4879.4018       2.1989360
       4881.3488       2.2413490
       4883.2958       2.2490420
       4885.2429       2.2487700
       4887.1899       2.2187820
       4889.1369       2.1921810
       4891.0839       2.2097860
       4893.0309       2.2414350
       4894.9779       2.2779970
       4896.9249       2.2555020
       4898.8719       2.2335010
       4900.8189       2.2440810
       4902.7659       2.2231400
       4904.7129       2.2479830
       4906.6600       2.2639560
       4908.6070       2.2302870
       4910.5540       2.2341770
       4912.5010       2.2517120
       4914.4480       2.2371690
       4916.3950       2.2100910
       4918.3420       2.2043750
       4920.2890       2.2076850
       4922.2360       2.1924310
       4924.1830       2.1739180
       4926.1300       2.1696900
       4928.0771       2.1381680
       4930.0241       2.0948460
       4931.9711       2.0985230
       4933.9181       2.0740180
       4935.8651       2.0444830
       4937.8121       2.0303900
       4939.7591       2.0016360
       4941.7061       1.9914170
       4943.6531       1.9709470
       4945.6001       1.9534900
       4947.5471       1.9448460
       4949.4942       1.9544530
       4951.4412       1.9565900
       4953.3882       1.9293720
       4955.3352       1.9157340
       4957.2822       1.9362190
       4959.2292       1.9121130
       4961.1762       1.9115130
       4963.1232       1.9358430
       4965.0702       1.8870180
       4967.0172       1.9245150
       4968.9642       1.9400390
       4970.9113       1.9472950
       4972.8583       1.9684450
       4974.8053       1.9521560
       4976.7523       1.9722880
       4978.6993       1.9977200
       4980.6463       2.0249450
       4982.5933       2.0611530
       4984.5403       2.0437580
       4986.4873       2.1043120
       4988.4343       2.0933810
       4990.3813       2.1064400
       4992.3284       2.1579690
       4994.2754       2.1488850
       4996.2224       2.1554620
       4998.1694       2.1561200
       5000.1164       2.1679250
       5002.0634       2.1813670
       5004.0104       2.1768420
       5005.9574       2.2042880
       5007.9044       2.2024480
       5009.8514       2.2034700
       5011.7985       2.2343820
       5013.7455       2.2541460
       5015.6925       2.2486780
       5017.6395       2.2666480
       5019.5865       2.2497450
       5021.5335       2.2439660
       5023.4805       2.2421870
       5025.4275       2.2986760
       5027.3745       2.3756200
       5029.3215       2.3636160
       5031.2685       2.3115510
       5033.2156       2.2819230
       5035.1626       2.2823360
       5037.1096       2.2590250
       5039.0566       2.2918520
       5041.0036       2.2981290
       5042.9506       2.2823680
       5044.8976       2.2766660
       5046.8446       2.2493030
       5048.7916       2.2961890
       5050.7386       2.2767670
       5052.6856       2.2905220
       5054.6327       2.2705960
       5056.5797       2.2934560
       5058.5267       2.2988860
       5060.4737       2.2763240
       5062.4207       2.2813440
       5064.3677       2.2920640
       5066.3147       2.3261900
       5068.2617       2.3140240
       5070.2087       2.3273820
       5072.1557       2.3125630
       5074.1027       2.2929290
       5076.0498       2.2894370
       5077.9968       2.2976950
       5079.9438       2.3187480
       5081.8908       2.2944830
       5083.8378       2.2948570
       5085.7848       2.3352510
       5087.7318       2.3265570
       5089.6788       2.3335450
       5091.6258       2.3382750
       5093.5728       2.3006910
       5095.5198       2.3369900
       5097.4669       2.3312450
       5099.4139       2.3354330
       5101.3609       2.3351670
       5103.3079       2.3032620
       5105.2549       2.2991300
       5107.2019       2.3043830
       5109.1489       2.3214340
       5111.0959       2.2905290
       5113.0429       2.2683380
       5114.9899       2.2901180
       5116.9369       2.3265190
       5118.8840       2.3066900
       5120.8310       2.2653940
       5122.7780       2.2486220
       5124.7250       2.2714540
       5126.6720       2.2769570
       5128.6190       2.2417350
       5130.5660       2.2341580
       5132.5130       2.2887990
       5134.4600       2.2863090
       5136.4070       2.2366280
       5138.3540       2.2543400
       5140.3011       2.2804560
       5142.2481       2.2693960
       5144.1951       2.2637350
       5146.1421       2.2579010
       5148.0891       2.2904050
       5150.0361       2.2376900
       5151.9831       2.2697390
       5153.9301       2.2753910
       5155.8771       2.2827040
       5157.8241       2.2490930
       5159.7711       2.2481010
       5161.7182       2.2712940
       5163.6652       2.2486710
       5165.6122       2.2524440
       5167.5592       2.2728920
       5169.5062       2.2904120
       5171.4532       2.2805160
       5173.4002       2.2410010
       5175.3472       2.3054090
       5177.2942       2.3112960
       5179.2412       2.2853880
       5181.1882       2.2775450
       5183.1353       2.2830220
       5185.0823       2.2932590
       5187.0293       2.2536270
       5188.9763       2.2556250
       5190.9233       2.2681010
       5192.8703       2.2689080
       5194.8173       2.2493610
       5196.7643       2.2649120
       5198.7113       2.2873230
       5200.6583       2.2511280
       5202.6053       2.2445970
       5204.5524       2.2545740
       5206.4994       2.2743610
       5208.4464       2.2653760
       5210.3934       2.2432810
       5212.3404       2.1951570
       5214.2874       2.2020730
       5216.2344       2.2164020
       5218.1814       2.2060630
       5220.1284       2.1697810
       5222.0754       2.1654660
       5224.0224       2.1622200
       5225.9695       2.1379590
       5227.9165       2.1355510
       5229.8635       2.1489330
       5231.8105       2.1147420
       5233.7575       2.1086260
       5235.7045       2.1238700
       5237.6515       2.0771130
       5239.5985       2.0576010
       5241.5455       2.0809160
       5243.4925       2.0992570
       5245.4395       2.0854400
       5247.3866       2.0495680
       5249.3336       2.0617970
       5251.2806       2.0636230
       5253.2276       2.0264400
       5255.1746       2.0166810
       5257.1216       2.0274200
       5259.0686       2.0199480
       5261.0156       2.0406860
       5262.9626       2.0424370
       5264.9096       2.0283230
       5266.8567       2.0330280
       5268.8037       2.0574330
       5270.7507       2.0471700
       5272.6977       2.0352550
       5274.6447       2.0418470
       5276.5917       2.0538760
       5278.5387       2.0693000
       5280.4857       2.0361360
       5282.4327       2.0208200
       5284.3797       2.0611820
       5286.3267       2.0444010
       5288.2738       2.0543050
       5290.2208       2.0831520
       5292.1678       2.0528500
       5294.1148       2.0431380
       5296.0618       2.0651940
       5298.0088       2.0636360
       5299.9558       2.0460090
       5301.9028       2.0392110
       5303.8498       2.0525410
       5305.7968       2.0656140
       5307.7438       2.0552400
       5309.6909       2.0380300
       5311.6379       2.0368370
       5313.5849       2.0460170
       5315.5319       2.0521250
       5317.4789       2.0591360
       5319.4259       2.0409830
       5321.3729       2.0552640
       5323.3199       2.0664580
       5325.2669       2.0595000
       5327.2139       2.0453180
       5329.1609       2.0254660
       5331.1080       2.0322220
       5333.0550       2.0414290
       5335.0020       2.0603460
       5336.9490       2.0504150
       5338.8960       2.0593330
       5340.8430       2.0591720
       5342.7900       2.0196920
       5344.7370       2.0262090
       5346.6840       2.0061690
       5348.6310       2.0254290
       5350.5780       2.0041450
       5352.5251       1.9923250
       5354.4721       2.0412400
       5356.4191       2.0076190
       5358.3661       1.9679440
       5360.3131       2.0275590
       5362.2601       2.0265470
       5364.2071       1.9991480
       5366.1541       2.0120510
       5368.1011       2.0073490
       5370.0481       1.9776720
       5371.9951       1.9435700
       5373.9422       1.9889480
       5375.8892       1.9791110
       5377.8362       1.9775110
       5379.7832       1.9655980
       5381.7302       1.9707120
       5383.6772       1.9847850
       5385.6242       1.9765730
       5387.5712       1.9406070
       5389.5182       1.9504600
       5391.4652       1.9651520
       5393.4122       1.9568480
       5395.3593       1.9386220
       5397.3063       1.9549740
       5399.2533       1.9227480
       5401.2003       1.9132440
       5403.1473       1.9303120
       5405.0943       1.9126610
       5407.0413       1.9028580
       5408.9883       1.8968310
       5410.9353       1.8679270
       5412.8823       1.8361010
       5414.8293       1.8615350
       5416.7764       1.8852560
       5418.7234       1.8612820
       5420.6704       1.8734510
       5422.6174       1.8488830
       5424.5644       1.8336770
       5426.5114       1.8054710
       5428.4584       1.7826010
       5430.4054       1.7883720
       5432.3524       1.7785450
       5434.2994       1.7766900
       5436.2464       1.7675130
       5438.1935       1.7580900
       5440.1405       1.7517930
       5442.0875       1.7552320
       5444.0345       1.7378130
       5445.9815       1.7130970
       5447.9285       1.7247580
       5449.8755       1.7495780
       5451.8225       1.7315960
       5453.7695       1.7179230
       5455.7165       1.7328770
       5457.6635       1.7365750
       5459.6106       1.7222000
       5461.5576       1.7355400
       5463.5046       1.7480090
       5465.4516       1.7550410
       5467.3986       1.7592390
       5469.3456       1.7514590
       5471.2926       1.7608980
       5473.2396       1.7767090
       5475.1866       1.7941370
       5477.1336       1.7623700
       5479.0806       1.7684330
       5481.0277       1.7714760
       5482.9747       1.7853690
       5484.9217       1.7648900
       5486.8687       1.7796070
       5488.8157       1.8029670
       5490.7627       1.7627330
       5492.7097       1.7383570
       5494.6567       1.7927980
       5496.6037       1.7885560
       5498.5507       1.7887490
       5500.4977       1.7797010
       5502.4448       1.7684640
       5504.3918       1.7638810
       5506.3388       1.7641430
       5508.2858       1.8141970
       5510.2328       1.7470790
       5512.1798       1.7420180
       5514.1268       1.7475490
       5516.0738       1.7518530
       5518.0208       1.7531070
       5519.9678       1.7682940
       5521.9149       1.7690800
       5523.8619       1.7623420
       5525.8089       1.7515730
       5527.7559       1.7710570
       5529.7029       1.7327770
       5531.6499       1.7269710
       5533.5969       1.7220290
       5535.5439       1.7232730
       5537.4909       1.7069260
       5539.4379       1.7189310
       5541.3849       1.7133760
       5543.3320       1.7229470
       5545.2790       1.7183000
       5547.2260       1.7236390
       5549.1730       1.7086660
       5551.1200       1.7029140
       5553.0670       1.7175340
       5555.0140       1.7027090
       5556.9610       1.7461160
       5558.9080       1.7406880
       5560.8550       1.7203610
       5562.8020       1.7104280
       5564.7491       1.7294720
       5566.6961       1.7296610
       5568.6431       1.7265350
       5570.5901       1.7530890
       5572.5371       1.7451250
       5574.4841       1.7065770
       5576.4311       1.7127600
       5578.3781       1.7169480
       5580.3251       1.7028910
       5582.2721       1.7019990
       5584.2191       1.7359480
       5586.1662       1.7100950
       5588.1132       1.6930440
       5590.0602       1.7004870
       5592.0072       1.7098400
       5593.9542       1.7072800
       5595.9012       1.6906300
       5597.8482       1.6803990
       5599.7952       1.6843850
       5601.7422       1.6640130
       5603.6892       1.6429180
       5605.6362       1.6637210
       5607.5833       1.6465430
       5609.5303       1.6407790
       5611.4773       1.6556810
       5613.4243       1.6401260
       5615.3713       1.6203330
       5617.3183       1.6430640
       5619.2653       1.6283870
       5621.2123       1.5919810
       5623.1593       1.6073010
       5625.1063       1.6205180
       5627.0533       1.5979280
       5629.0004       1.5619230
       5630.9474       1.5873240
       5632.8944       1.5779030
       5634.8414       1.5546990
       5636.7884       1.5545400
       5638.7354       1.5777000
       5640.6824       1.5608870
       5642.6294       1.5647130
       5644.5764       1.5564120
       5646.5234       1.5211000
       5648.4704       1.5046230
       5650.4175       1.4977040
       5652.3645       1.5118520
       5654.3115       1.5050090
       5656.2585       1.5238850
       5658.2055       1.5367320
       5660.1525       1.5175070
       5662.0995       1.5257200
       5664.0465       1.5412690
       5665.9935       1.5329620
       5667.9405       1.5445340
       5669.8875       1.5370290
       5671.8346       1.5394470
       5673.7816       1.5544250
       5675.7286       1.5773520
       5677.6756       1.5936670
       5679.6226       1.5931090
       5681.5696       1.5860200
       5683.5166       1.6297650
       5685.4636       1.6380330
       5687.4106       1.6143290
       5689.3576       1.6567870
       5691.3046       1.6699990
       5693.2517       1.6718610
       5695.1987       1.7000760
       5697.1457       1.7123080
       5699.0927       1.7071220
       5701.0397       1.7139850
       5702.9867       1.7364370
       5704.9337       1.7496910
       5706.8807       1.7594950
       5708.8277       1.7688250
       5710.7747       1.7899930
       5712.7217       1.7984490
       5714.6688       1.7824460
       5716.6158       1.7580990
       5718.5628       1.7659310
       5720.5098       1.7724540
       5722.4568       1.7937200
       5724.4038       1.7804040
       5726.3508       1.7550330
       5728.2978       1.7627440
       5730.2448       1.7704280
       5732.1918       1.7752950
       5734.1388       1.7919470
       5736.0859       1.7831660
       5738.0329       1.7662420
       5739.9799       1.7798730
       5741.9269       1.7959550
       5743.8739       1.7736150
       5745.8209       1.7541990
       5747.7679       1.7955450
       5749.7149       1.7484460
       5751.6619       1.7596690
       5753.6089       1.7697820
       5755.5560       1.7474790
       5757.5030       1.7590700
       5759.4500       1.7660370
       5761.3970       1.7393970
       5763.3440       1.7751270
       5765.2910       1.7886640
       5767.2380       1.7476720
       5769.1850       1.7494800
       5771.1320       1.7577670
       5773.0790       1.7468220
       5775.0260       1.7390510
       5776.9731       1.7396600
       5778.9201       1.7250560
       5780.8671       1.7442200
       5782.8141       1.7335890
       5784.7611       1.7214980
       5786.7081       1.7212370
       5788.6551       1.7097470
       5790.6021       1.7068040
       5792.5491       1.7174110
       5794.4961       1.7083450
       5796.4431       1.7288450
       5798.3902       1.7277950
       5800.3372       1.7244770
       5802.2842       1.6974620
       5804.2312       1.6651450
       5806.1782       1.6683910
       5808.1252       1.6977780
       5810.0722       1.7326270
       5812.0192       1.7083700
       5813.9662       1.7002250
       5815.9132       1.6999790
       5817.8602       1.6909760
       5819.8073       1.7042250
       5821.7543       1.7028340
       5823.7013       1.6929460
       5825.6483       1.6877730
       5827.5953       1.6731570
       5829.5423       1.6620050
       5831.4893       1.6703450
       5833.4363       1.6691340
       5835.3833       1.6839370
       5837.3303       1.6903600
       5839.2773       1.6554450
       5841.2244       1.6544330
       5843.1714       1.6863560
       5845.1184       1.6630960
       5847.0654       1.6459660
       5849.0124       1.6478000
       5850.9594       1.6629860
       5852.9064       1.6473150
       5854.8534       1.6397660
       5856.8004       1.6248800
       5858.7474       1.6109210
       5860.6944       1.6250410
       5862.6415       1.6060300
       5864.5885       1.5900770
       5866.5355       1.5954460
       5868.4825       1.5617080
       5870.4295       1.5939180
       5872.3765       1.6010320
       5874.3235       1.5905470
       5876.2705       1.5566250
       5878.2175       1.5945610
       5880.1645       1.5618910
       5882.1115       1.5486690
       5884.0586       1.5514730
       5886.0056       1.5290990
       5887.9526       1.5133100
       5889.8996       1.5024340
       5891.8466       1.5113500
       5893.7936       1.4828170
       5895.7406       1.4885720
       5897.6876       1.5115660
       5899.6346       1.5359690
       5901.5816       1.5092420
       5903.5286       1.5300510
       5905.4757       1.5358350
       5907.4227       1.5208160
       5909.3697       1.5305390
       5911.3167       1.5166270
       5913.2637       1.4787250
       5915.2107       1.4648300
       5917.1577       1.4525130
       5919.1047       1.4540200
       5921.0517       1.4759100
       5922.9987       1.5022470
       5924.9457       1.5033630
       5926.8928       1.5178790
       5928.8398       1.5168510
       5930.7868       1.5167620
       5932.7338       1.5262650
       5934.6808       1.5123850
       5936.6278       1.5453340
       5938.5748       1.5478550
       5940.5218       1.5282900
       5942.4688       1.5109010
       5944.4158       1.5271940
       5946.3628       1.5390240
       5948.3099       1.5352430
       5950.2569       1.5540540
       5952.2039       1.5596610
       5954.1509       1.5473410
       5956.0979       1.5662640
       5958.0449       1.5706440
       5959.9919       1.5471200
       5961.9389       1.5759440
       5963.8859       1.5810530
       5965.8329       1.5552010
       5967.7799       1.5476430
       5969.7270       1.5685250
       5971.6740       1.5697390
       5973.6210       1.5416950
       5975.5680       1.5309810
       5977.5150       1.5659720
       5979.4620       1.5578880
       5981.4090       1.5683660
       5983.3560       1.5938730
       5985.3030       1.5886720
       5987.2500       1.5683800
       5989.1970       1.5668380
       5991.1441       1.5540900
       5993.0911       1.5544880
       5995.0381       1.5940810
       5996.9851       1.5853240
       5998.9321       1.5598000
       6000.8791       1.5591890
       6002.8261       1.5625890
       6004.7731       1.5547350
       6006.7201       1.5429970
       6008.6671       1.5640650
       6010.6142       1.5686850
       6012.5612       1.5620480
       6014.5082       1.5644810
       6016.4552       1.5759010
       6018.4022       1.5711870
       6020.3492       1.5346160
       6022.2962       1.5209550
       6024.2432       1.5229940
       6026.1902       1.5110170
       6028.1372       1.4956160
       6030.0842       1.5220770
       6032.0313       1.5561840
       6033.9783       1.5294580
       6035.9253       1.5355060
       6037.8723       1.5365050
       6039.8193       1.5156640
       6041.7663       1.5195820
       6043.7133       1.5281980
       6045.6603       1.5188180
       6047.6073       1.4912750
       6049.5543       1.4988230
       6051.5013       1.4902370
       6053.4484       1.4888180
       6055.3954       1.4777310
       6057.3424       1.4776210
       6059.2894       1.4812510
       6061.2364       1.4496180
       6063.1834       1.4399860
       6065.1304       1.4542170
       6067.0774       1.4300440
       6069.0244       1.4148730
       6070.9714       1.3978920
       6072.9184       1.3697540
       6074.8655       1.4034220
       6076.8125       1.3955610
       6078.7595       1.3729050
       6080.7065       1.3787340
       6082.6535       1.3687810
       6084.6005       1.3574590
       6086.5475       1.3335170
       6088.4945       1.3332050
       6090.4415       1.3344360
       6092.3885       1.3177520
       6094.3355       1.2907720
       6096.2826       1.2828620
       6098.2296       1.2803580
       6100.1766       1.2596450
       6102.1236       1.2584210
       6104.0706       1.2473890
       6106.0176       1.2370110
       6107.9646       1.2289110
       6109.9116       1.2395090
       6111.8586       1.2452150
       6113.8056       1.2346030
       6115.7526       1.2360130
       6117.6997       1.2223640
       6119.6467       1.2107690
       6121.5937       1.2109940
       6123.5407       1.2182990
       6125.4877       1.1960780
       6127.4347       1.2225760
       6129.3817       1.2333260
       6131.3287       1.2344190
       6133.2757       1.2146990
       6135.2227       1.2119260
       6137.1697       1.2248510
       6139.1168       1.2563370
       6141.0638       1.2720020
       6143.0108       1.2741120
       6144.9578       1.2799360
       6146.9048       1.2848810
       6148.8518       1.2901380
       6150.7988       1.2931710
       6152.7458       1.2936120
       6154.6928       1.2943270
       6156.6398       1.3138550
       6158.5868       1.3043590
       6160.5339       1.3001900
       6162.4809       1.3240530
       6164.4279       1.3198300
       6166.3749       1.3547020
       6168.3219       1.3567260
       6170.2689       1.3557060
       6172.2159       1.3668510
       6174.1629       1.3747660
       6176.1099       1.3714570
       6178.0569       1.3899660
       6180.0039       1.3975040
       6181.9510       1.3959520
       6183.8980       1.4123830
       6185.8450       1.4099840
       6187.7920       1.4082600
       6189.7390       1.4190150
       6191.6860       1.4376810
       6193.6330       1.4434510
       6195.5800       1.4761620
       6197.5270       1.4617090
       6199.4740       1.4410190
       6201.4210       1.4549990
       6203.3681       1.4534010
       6205.3151       1.4443920
       6207.2621       1.4589900
       6209.2091       1.4772490
       6211.1561       1.4838490
       6213.1031       1.4730540
       6215.0501       1.4578110
       6216.9971       1.4622710
       6218.9441       1.4987740
       6220.8911       1.5017650
       6222.8381       1.4614170
       6224.7852       1.4717600
       6226.7322       1.4762590
       6228.6792       1.4663240
       6230.6262       1.4819840
       6232.5732       1.4642420
       6234.5202       1.4908600
       6236.4672       1.4972090
       6238.4142       1.4946260
       6240.3612       1.4778460
       6242.3082       1.4987400
       6244.2552       1.5053640
       6246.2023       1.5061490
       6248.1493       1.4834750
       6250.0963       1.4711610
       6252.0433       1.4933680
       6253.9903       1.5024480
       6255.9373       1.4887500
       6257.8843       1.4715850
       6259.8313       1.4689810
       6261.7783       1.4377200
       6263.7253       1.4525740
       6265.6724       1.4464130
       6267.6194       1.4495570
       6269.5664       1.4562440
       6271.5134       1.4267740
       6273.4604       1.3816020
       6275.4074       1.3477930
       6277.3544       1.3166940
       6279.3014       1.2952760
       6281.2484       1.2794480
       6283.1954       1.2802520
       6285.1424       1.2853450
       6287.0895       1.2770660
       6289.0365       1.2540660
       6290.9835       1.2169970
       6292.9305       1.1885470
       6294.8775       1.1712980
       6296.8245       1.1350830
       6298.7715       1.1192860
       6300.7185       1.1442740
       6302.6655       1.1156930
       6304.6125       1.0831490
       6306.5595       1.0748950
       6308.5066       1.0389960
       6310.4536       1.0352360
       6312.4006       1.0135840
       6314.3476      0.99613360
       6316.2946       1.0196650
       6318.2416       1.0282080
       6320.1886       1.0042200
       6322.1356       1.0034000
       6324.0826       1.0033520
       6326.0296       1.0053880
       6327.9766       1.0204840
       6329.9237       1.0371910
       6331.8707       1.0266830
       6333.8177       1.0599750
       6335.7647       1.0594860
       6337.7117       1.0743170
       6339.6587       1.0810680
       6341.6057       1.0733550
       6343.5527       1.1187440
       6345.4997       1.1381380
       6347.4467       1.1371810
       6349.3937       1.1726940
       6351.3408       1.1979240
       6353.2878       1.1905740
       6355.2348       1.2196850
       6357.1818       1.2453760
       6359.1288       1.2447790
       6361.0758       1.2540820
       6363.0228       1.2914350
       6364.9698       1.2942150
       6366.9168       1.2915910
       6368.8638       1.3357040
       6370.8108       1.3265980
       6372.7579       1.3476460
       6374.7049       1.3636110
       6376.6519       1.3871710
       6378.5989       1.3812380
       6380.5459       1.3684470
       6382.4929       1.3562170
       6384.4399       1.3823960
       6386.3869       1.4230390
       6388.3339       1.4070500
       6390.2809       1.4159590
       6392.2279       1.4026320
       6394.1750       1.3931110
       6396.1220       1.4258610
       6398.0690       1.4150740
       6400.0160       1.4104830
       6401.9630       1.4189510
       6403.9100       1.4315980
       6405.8570       1.4147010
       6407.8040       1.4335880
       6409.7510       1.4600820
       6411.6980       1.4448560
       6413.6450       1.4482770
       6415.5921       1.4173940
       6417.5391       1.4132060
       6419.4861       1.3958200
       6421.4331       1.3955150
       6423.3801       1.4042040
       6425.3271       1.3916360
       6427.2741       1.3931080
       6429.2211       1.3946880
       6431.1681       1.3922540
       6433.1151       1.4056280
       6435.0621       1.4175790
       6437.0092       1.4010350
       6438.9562       1.4067350
       6440.9032       1.4164430
       6442.8502       1.3908920
       6444.7972       1.3845940
       6446.7442       1.3975320
       6448.6912       1.3879540
       6450.6382       1.3922130
       6452.5852       1.3915940
       6454.5322       1.3726070
       6456.4792       1.3978620
       6458.4263       1.3918580
       6460.3733       1.4113470
       6462.3203       1.4107340
       6464.2673       1.4213300
       6466.2143       1.4157660
       6468.1613       1.3938880
       6470.1083       1.3973240
       6472.0553       1.4309100
       6474.0023       1.4085080
       6475.9493       1.4223250
       6477.8963       1.4002480
       6479.8434       1.4106590
       6481.7904       1.4390780
       6483.7374       1.4481620
       6485.6844       1.4435580
       6487.6314       1.4297710
       6489.5784       1.4061600
       6491.5254       1.4169650
       6493.4724       1.4470780
       6495.4194       1.3943010
       6497.3664       1.4229070
       6499.3134       1.4680350
       6501.2605       1.4158900
       6503.2075       1.4258220
       6505.1545       1.4215390
       6507.1015       1.4141440
       6509.0485       1.4086570
       6510.9955       1.3979110
       6512.9425       1.3913200
       6514.8895       1.3734840
       6516.8365       1.4046700
       6518.7835       1.3928390
       6520.7306       1.3595510
       6522.6776       1.3869560
       6524.6246       1.3913350
       6526.5716       1.3583420
       6528.5186       1.3625590
       6530.4656       1.3460300
       6532.4126       1.3510330
       6534.3596       1.3604410
       6536.3066       1.3435530
       6538.2536       1.3410760
       6540.2006       1.3153960
       6542.1477       1.3331220
       6544.0947       1.3035240
       6546.0417       1.3082050
       6547.9887       1.3106920
       6549.9357       1.3034550
       6551.8827       1.3003500
       6553.8297       1.2882900
       6555.7767       1.2737580
       6557.7237       1.2852460
       6559.6707       1.2876770
       6561.6177       1.2780930
       6563.5648       1.2953680
       6565.5118       1.3015960
       6567.4588       1.2979980
       6569.4058       1.2976440
       6571.3528       1.3009870
       6573.2998       1.3046640
       6575.2468       1.2824300
       6577.1938       1.2815330
       6579.1408       1.2892630
       6581.0878       1.2846120
       6583.0348       1.2767140
       6584.9819       1.2614470
       6586.9289       1.3198310
       6588.8759       1.3438360
       6590.8229       1.3857630
       6592.7699       1.3730630
       6594.7169       1.3219280
       6596.6639       1.3055100
       6598.6109       1.2840450
       6600.5579       1.2771370
       6602.5049       1.2992190
       6604.4519       1.2706180
       6606.3990       1.2539770
       6608.3460       1.2733570
       6610.2930       1.2590210
       6612.2400       1.2788190
       6614.1870       1.2905570
       6616.1340       1.2631230
       6618.0810       1.2573730
       6620.0280       1.2639620
       6621.9750       1.2604190
       6623.9220       1.2491060
       6625.8690       1.2322370
       6627.8161       1.2613470
       6629.7631       1.2619560
       6631.7101       1.2473450
       6633.6571       1.2270820
       6635.6041       1.2545730
       6637.5511       1.2304400
       6639.4981       1.2273010
       6641.4451       1.2106740
       6643.3921       1.2002550
       6645.3391       1.2247130
       6647.2861       1.1973160
       6649.2332       1.1987810
       6651.1802       1.2323760
       6653.1272       1.2326910
       6655.0742       1.2262350
       6657.0212       1.2190190
       6658.9682       1.1891790
       6660.9152       1.2064220
       6662.8622       1.2058040
       6664.8092       1.1941190
       6666.7562       1.1731220
       6668.7032       1.1745250
       6670.6503       1.1711880
       6672.5973       1.1783040
       6674.5443       1.1707360
       6676.4913       1.1791070
       6678.4383       1.1619610
       6680.3853       1.1629430
       6682.3323       1.1927980
       6684.2793       1.1576420
       6686.2263       1.1459590
       6688.1733       1.1586270
       6690.1203       1.1587000
       6692.0674       1.1697300
       6694.0144       1.1506640
       6695.9614       1.1453310
       6697.9084       1.1647980
       6699.8554       1.1687140
       6701.8024       1.1813790
       6703.7494       1.1725790
       6705.6964       1.1537840
       6707.6434       1.1471590
       6709.5904       1.1322000
       6711.5374       1.1286480
       6713.4845       1.1376360
       6715.4315       1.1558320
       6717.3785       1.1466840
       6719.3255       1.1321730
       6721.2725       1.1418920
       6723.2195       1.1489860
       6725.1665       1.1434840
       6727.1135       1.1218170
       6729.0605       1.1058210
       6731.0075       1.1164040
       6732.9545       1.1281240
       6734.9016       1.1353640
       6736.8486       1.1112540
       6738.7956       1.1047400
       6740.7426       1.1262650
       6742.6896       1.0979440
       6744.6366       1.0968280
       6746.5836       1.1218980
       6748.5306       1.1221630
       6750.4776       1.1291600
       6752.4246       1.0982180
       6754.3717       1.0850910
       6756.3187       1.1062720
       6758.2657       1.0777990
       6760.2127       1.0869880
       6762.1597       1.0854340
       6764.1067       1.0818280
       6766.0537       1.0982300
       6768.0007       1.0827610
       6769.9477       1.0702500
       6771.8947       1.0835190
       6773.8417       1.0737270
       6775.7888       1.0768190
       6777.7358       1.0570750
       6779.6828       1.0513710
       6781.6298       1.0569650
       6783.5768       1.0505900
       6785.5238       1.0759350
       6787.4708       1.0675760
       6789.4178       1.0358770
       6791.3648       1.0292900
       6793.3118       1.0471110
       6795.2588       1.0452150
       6797.2059       1.0438400
       6799.1529       1.0424000
       6801.0999       1.0222330
       6803.0469       1.0260390
       6804.9939       1.0569030
       6806.9409       1.0690920
       6808.8879       1.0697170
       6810.8349       1.0691490
       6812.7819       1.0455060
       6814.7289       1.0651890
       6816.6759       1.0736710
       6818.6230       1.0589740
       6820.5700       1.0850210
       6822.5170       1.0761580
       6824.4640       1.0344020
       6826.4110       1.0367460
       6828.3580       1.0599710
       6830.3050       1.0555080
       6832.2520       1.0526610
       6834.1990       1.0790650
       6836.1460       1.0667220
       6838.0930       1.0559250
       6840.0401       1.0709730
       6841.9871       1.0583060
       6843.9341       1.0718250
       6845.8811       1.0599460
       6847.8281       1.0437670
       6849.7751       1.0593530
       6851.7221       1.0446310
       6853.6691       1.0512530
       6855.6161       1.0651210
       6857.5631       1.0532220
       6859.5101       1.0511920
       6861.4572       1.0582420
       6863.4042       1.0974730
       6865.3512       1.0465730
       6867.2982       1.0452740
       6869.2452       1.0432500
       6871.1922       1.0555950
       6873.1392       1.0385430
       6875.0862       1.0370180
       6877.0332       1.0334730
       6878.9802       1.0300590
       6880.9272       1.0287740
       6882.8743       1.0260730
       6884.8213       1.0240780
       6886.7683       1.0207640
       6888.7153       1.0211580
       6890.6623       1.0203530
       6892.6093       1.0190710
       6894.5563       1.0159030
       6896.5033       1.0107350
       6898.4503       1.0266580
       6900.3973      0.98801530
       6902.3443       1.0184330
       6904.2914       1.0031300
       6906.2384       1.0043100
       6908.1854       1.0025440
       6910.1324      0.99444370
       6912.0794       1.0181120
       6914.0264       1.0128370
       6915.9734      0.99124500
       6917.9204       1.0035760
       6919.8674       1.0217010
       6921.8144       1.0089610
       6923.7614      0.98224140
       6925.7085      0.98012710
       6927.6555      0.97579950
       6929.6025      0.96076220
       6931.5495      0.95783470
       6933.4965      0.97885280
       6935.4435      0.96759820
       6937.3905      0.96476970
       6939.3375      0.93516310
       6941.2845      0.92553150
       6943.2315      0.92549080
       6945.1785      0.89967350
       6947.1256      0.88861490
       6949.0726      0.89381800
       6951.0196      0.88865870
       6952.9666      0.90288240
       6954.9136      0.89101740
       6956.8606      0.88442160
       6958.8076      0.89325550
       6960.7546      0.89518400
       6962.7016      0.92260800
       6964.6486      0.91629590
       6966.5956      0.89997600
       6968.5427      0.89912980
       6970.4897      0.91271540
       6972.4367      0.90445080
       6974.3837      0.91414840
       6976.3307      0.89796150
       6978.2777      0.88542840
       6980.2247      0.89706920
       6982.1717      0.91891080
       6984.1187      0.91427930
       6986.0657      0.90807830
       6988.0127      0.94089760
       6989.9598      0.93880030
       6991.9068      0.91416050
       6993.8538      0.96071940
       6995.8008      0.96225510
       6997.7478      0.96016140
       6999.6948      0.96401180
       7001.6418      0.95294730
       7003.5888      0.96522690
       7005.5358      0.97152290
       7007.4828      0.97047320
       7009.4299       1.0071410
       7011.3769      0.98498830
       7013.3239      0.99415640
       7015.2709       1.0314930
       7017.2179       1.0588630
       7019.1649       1.0513510
       7021.1119       1.0631100
       7023.0589       1.0454500
       7025.0059       1.0281050
       7026.9529       1.0390840
       7028.8999       1.0529140
       7030.8470       1.0890370
       7032.7940       1.0812930
       7034.7410       1.0599220
       7036.6880       1.0718650
       7038.6350       1.0621360
       7040.5820       1.0466670
       7042.5290       1.0695220
       7044.4760       1.0888630
       7046.4230       1.1289860
       7048.3700       1.0895190
       7050.3170       1.0678280
       7052.2641       1.0919740
       7054.2111       1.1145970
       7056.1581       1.0827430
       7058.1051       1.0787910
       7060.0521       1.0711250
       7061.9991       1.0830700
       7063.9461       1.1063400
       7065.8931       1.0896800
       7067.8401       1.0811180
       7069.7871       1.0864260
       7071.7341       1.1071830
       7073.6812       1.0850460
       7075.6282       1.0970660
       7077.5752       1.0827520
       7079.5222       1.1069080
       7081.4692       1.1067150
       7083.4162       1.0749600
       7085.3632       1.0848280
       7087.3102       1.0956190
       7089.2572       1.0973750
       7091.2042       1.0891520
       7093.1512       1.1226920
       7095.0983       1.1192330
       7097.0453       1.0922950
       7098.9923       1.1139620
       7100.9393       1.1014570
       7102.8863       1.0957660
       7104.8333       1.0786150
       7106.7803       1.1126620
       7108.7273       1.1085390
       7110.6743       1.1022570
       7112.6213       1.0726450
       7114.5683       1.0742250
       7116.5154       1.0664600
       7118.4624       1.0857540
       7120.4094       1.0939980
       7122.3564       1.0900470
       7124.3034       1.0953660
       7126.2504       1.0685900
       7128.1974       1.0591370
       7130.1444       1.0534260
       7132.0914       1.0365090
       7134.0384       1.0645710
       7135.9854       1.0947810
       7137.9325       1.0703990
       7139.8795       1.0536730
       7141.8265       1.0511620
       7143.7735       1.0554610
       7145.7205       1.0641970
       7147.6675       1.0648320
       7149.6145       1.0481830
       7151.5615       1.0576180
       7153.5085       1.0267220
       7155.4555       1.0236200
       7157.4025       1.0224480
       7159.3496       1.0211170
       7161.2966       1.0483230
       7163.2436       1.0537080
       7165.1906       1.0616910
       7167.1376       1.0586140
       7169.0846       1.0548550
       7171.0316       1.0569710
       7172.9786       1.0462370
       7174.9256       1.1233040
       7176.8726       1.1215730
       7178.8196       1.0493980
       7180.7667       1.0218860
       7182.7137       1.0384610
       7184.6607       1.0280770
       7186.6077       1.0173830
       7188.5547      0.99855430
       7190.5017      0.96831430
       7192.4487       1.0203000
       7194.3957       1.0490850
       7196.3427       1.0037500
       7198.2897      0.99972440
       7200.2367       1.0096830
       7202.1838       1.0194070
       7204.1308       1.0225910
       7206.0778      0.99657640
       7208.0248      0.98419800
       7209.9718      0.99212070
       7211.9188       1.0107940
       7213.8658       1.0054370
       7215.8128       1.0122900
       7217.7598      0.99695810
       7219.7068      0.98959870
       7221.6538      0.97416850
       7223.6009      0.94960160
       7225.5479      0.97376180
       7227.4949      0.98466020
       7229.4419       1.0123080
       7231.3889      0.97222970
       7233.3359      0.95430480
       7235.2829      0.99093440
       7237.2299      0.97217840
       7239.1769      0.99599300
       7241.1239      0.96034050
       7243.0709      0.90398180
       7245.0180      0.94559230
       7246.9650      0.94585190
       7248.9120      0.96957070
       7250.8590      0.99466320
       7252.8060      0.98816770
       7254.7530      0.96310730
       7256.7000      0.97019690
       7258.6470      0.95203480
       7260.5940      0.96830490
       7262.5410       1.0014610
       7264.4881      0.94302630
       7266.4351      0.95038820
       7268.3821       1.0135930
       7270.3291      0.97269590
       7272.2761      0.92636400
       7274.2231      0.92507910
       7276.1701      0.96535390
       7278.1171      0.90572640
       7280.0641      0.90122640
       7282.0111      0.93080420
       7283.9581      0.98427160
       7285.9052      0.93596570
       7287.8522      0.92978200
       7289.7992      0.98044300
       7291.7462      0.98671810
       7293.6932      0.92894030
       7295.6402      0.90286100
       7297.5872      0.95047860
       7299.5342      0.96351800
       7301.4812      0.96708910
       7303.4282      0.96413240
       7305.3752      0.99959790
       7307.3223      0.95280460
       7309.2693      0.93390230
       7311.2163      0.92820560
       7313.1633      0.95568830
       7315.1103      0.94998620
       7317.0573      0.89755330
       7319.0043      0.91880870
       7320.9513      0.90108580
       7322.8983      0.91591630
       7324.8453      0.90151190
       7326.7923      0.89447700
       7328.7394      0.87357860
       7330.6864      0.85733600
       7332.6334      0.85270870
       7334.5804      0.86665430
       7336.5274      0.88401240
       7338.4744      0.90662620
       7340.4214      0.89314440
       7342.3684      0.88601090
       7344.3154      0.86461140
       7346.2624      0.84042010
       7348.2094      0.85216020
       7350.1565      0.86600680
       7352.1035      0.85629210
       7354.0505      0.89231530
       7355.9975      0.90570410
       7357.9445      0.89339900
       7359.8915      0.85783600
       7361.8385      0.85847650
       7363.7855      0.87345830
       7365.7325      0.87694050
       7367.6795      0.85330680
       7369.6265      0.82777900
       7371.5736      0.83803490
       7373.5206      0.87314280
       7375.4676      0.83124220
       7377.4146      0.81761440
       7379.3616      0.79219770
       7381.3086      0.80512650
       7383.2556      0.81626870
       7385.2026      0.83006970
       7387.1496      0.83272820
       7389.0966      0.79370410
       7391.0436      0.79124190
       7392.9907      0.77994330
       7394.9377      0.76101560
       7396.8847      0.76775140
       7398.8317      0.76339660
       7400.7787      0.76096760
       7402.7257      0.76327810
       7404.6727      0.73779150
       7406.6197      0.71987360
       7408.5667      0.71688720
       7410.5137      0.72339570
       7412.4607      0.68996390
       7414.4078      0.68503000
       7416.3548      0.67609840
       7418.3018      0.66691980
       7420.2488      0.66324730
       7422.1958      0.63697110
       7424.1428      0.61905520
       7426.0898      0.62069780
       7428.0368      0.60053810
       7429.9838      0.59555090
       7431.9308      0.58217190
       7433.8778      0.59655370
       7435.8249      0.60568670
       7437.7719      0.57941970
       7439.7189      0.55928940
       7441.6659      0.56752400
       7443.6129      0.58886960
       7445.5599      0.56488610
       7447.5069      0.57099190
       7449.4539      0.57965860
       7451.4009      0.55330870
       7453.3479      0.56151500
       7455.2949      0.56305720
       7457.2420      0.52569820
       7459.1890      0.54234020
       7461.1360      0.53731730
       7463.0830      0.52675810
       7465.0300      0.53901590
       7466.9770      0.53048040
       7468.9240      0.54051490
       7470.8710      0.55552560
       7472.8180      0.53760390
       7474.7650      0.53557000
       7476.7120      0.56389450
       7478.6591      0.56963400
       7480.6061      0.57173420
       7482.5531      0.57552510
       7484.5001      0.57455280
       7486.4471      0.59952640
       7488.3941      0.61419540
       7490.3411      0.60330670
       7492.2881      0.61607650
       7494.2351      0.62456180
       7496.1821      0.62211960
       7498.1291      0.63362990
       7500.0762      0.63034740
       7502.0232      0.63880230
       7503.9702      0.65596710
       7505.9172      0.65376410
       7507.8642      0.65808460
       7509.8112      0.67722300
       7511.7582      0.71132970
       7513.7052      0.72774010
       7515.6522      0.71828550
       7517.5992      0.72174860
       7519.5463      0.75152570
       7521.4933      0.76620670
       7523.4403      0.74738800
       7525.3873      0.75326400
       7527.3343      0.75408280
       7529.2813      0.76541870
       7531.2283      0.78222830
       7533.1753      0.79265370
       7535.1223      0.78119990
       7537.0693      0.80342820
       7539.0163      0.81015010
       7540.9634      0.82612710
       7542.9104      0.81169340
       7544.8574      0.79457700
       7546.8044      0.79735880
       7548.7514      0.79570060
       7550.6984      0.82209310
       7552.6454      0.81918190
       7554.5924      0.82179380
       7556.5394      0.82156370
       7558.4864      0.84295060
       7560.4334      0.81497880
       7562.3805      0.83917000
       7564.3275      0.83378650
       7566.2745      0.85632720
       7568.2215      0.86469710
       7570.1685      0.86275320
       7572.1155      0.84706240
       7574.0625      0.84541220
       7576.0095      0.82597510
       7577.9565      0.84586910
       7579.9035      0.86438290
       7581.8505      0.91899820
       7583.7976      0.88541860
       7585.7446      0.89504450
       7587.6916      0.89197720
       7589.6386      0.83273410
       7591.5856      0.92685740
       7593.5326      0.88564660
       7595.4796      0.87166810
       7597.4266      0.86511290
       7599.3736      0.85951550
       7601.3206      0.74119540
       7603.2676      0.87708230
       7605.2147      0.86187490
       7607.1617      0.85637740
       7609.1087      0.86992480
       7611.0557      0.84530170
       7613.0027      0.85883840
       7614.9497      0.85331340
       7616.8967      0.93677190
       7618.8437       1.0220050
       7620.7907       1.0068370
       7622.7377       1.0002550
       7624.6847      0.90661630
       7626.6318      0.86288450
       7628.5788      0.92875330
       7630.5258      0.96836830
       7632.4728      0.90120000
       7634.4198      0.85770980
       7636.3668      0.88407210
       7638.3138      0.89757470
       7640.2608      0.88094650
       7642.2078      0.88505700
       7644.1548      0.86031100
       7646.1018      0.84506520
       7648.0489      0.90694160
       7649.9959      0.92617720
       7651.9429      0.89546880
       7653.8899      0.89733060
       7655.8369      0.92222310
       7657.7839      0.93474220
       7659.7309      0.91357480
       7661.6779      0.93403650
       7663.6249      0.91884300
       7665.5719      0.96447720
       7667.5189      0.96447050
       7669.4660      0.96222380
       7671.4130      0.97640880
       7673.3600      0.99215890
       7675.3070      0.96496230
       7677.2540      0.94521730
       7679.2010      0.98054780
       7681.1480      0.96308490
       7683.0950      0.98238560
       7685.0420      0.97883180
       7686.9890      0.98789700
       7688.9360      0.99138140
       7690.8831      0.96648200
       7692.8301      0.94981650
       7694.7771      0.96543310
       7696.7241      0.96862950
       7698.6711      0.96570010
       7700.6181      0.95565780
       7702.5651      0.96708950
       7704.5121      0.97815560
       7706.4591      0.99739820
       7708.4061       1.0165790
       7710.3531       1.0321740
       7712.3002       1.0006320
       7714.2472      0.97084890
       7716.1942      0.99782190
       7718.1412      0.97426930
       7720.0882      0.96399160
       7722.0352      0.97146930
       7723.9822      0.97187320
       7725.9292      0.96101590
       7727.8762      0.95687180
       7729.8232      0.97640360
       7731.7702      0.97118730
       7733.7173      0.94794030
       7735.6643      0.94624090
       7737.6113      0.96407340
       7739.5583      0.96618160
       7741.5053      0.99838420
       7743.4523      0.97324240
       7745.3993      0.94551640
       7747.3463      0.94356370
       7749.2933      0.91688920
       7751.2403      0.92162830
       7753.1874      0.92800840
       7755.1344      0.92093420
       7757.0814      0.93157700
       7759.0284      0.92066430
       7760.9754      0.89601760
       7762.9224      0.91907500
       7764.8694      0.92572880
       7766.8164      0.91897360
       7768.7634      0.94189180
       7770.7104      0.92297640
       7772.6574      0.91391410
       7774.6045      0.92667360
       7776.5515      0.89555850
       7778.4985      0.87712320
       7780.4455      0.90146890
       7782.3925      0.89252410
       7784.3395      0.87549960
       7786.2865      0.87709910
       7788.2335      0.91707440
       7790.1805      0.90779380
       7792.1275      0.87189610
       7794.0745      0.88881460
       7796.0216      0.89039150
       7797.9686      0.87052830
       7799.9156      0.88911670
       7801.8626      0.90677670
       7803.8096      0.89661340
       7805.7566      0.89019530
       7807.7036      0.87601390
       7809.6506      0.88083130
       7811.5976      0.89166610
       7813.5446      0.89870210
       7815.4916      0.85849620
       7817.4387      0.90582690
       7819.3857      0.89673460
       7821.3327      0.86598810
       7823.2797      0.86991360
       7825.2267      0.87497310
       7827.1737      0.87576990
       7829.1207      0.82656830
       7831.0677      0.89233850
       7833.0147      0.88198740
       7834.9617      0.89304490
       7836.9087      0.87356650
       7838.8558      0.87132610
       7840.8028      0.88324900
       7842.7498      0.91232220
       7844.6968      0.91831200
       7846.6438      0.89686010
       7848.5908      0.87036070
       7850.5378      0.87075160
       7852.4848      0.92305930
       7854.4318      0.92116200
       7856.3788      0.87894090
       7858.3258      0.84428760
       7860.2729      0.87750380
       7862.2199      0.87211500
       7864.1669      0.85879810
       7866.1139      0.89189770
       7868.0609      0.85360110
       7870.0079      0.84445500
       7871.9549      0.90288470
       7873.9019      0.91996840
       7875.8489      0.85404860
       7877.7959      0.84906610
       7879.7429      0.87390190
       7881.6900      0.87534900
       7883.6370      0.89131630
       7885.5840      0.89784670
       7887.5310      0.87215990
       7889.4780      0.86187080
       7891.4250      0.85968890
       7893.3720      0.87724120
       7895.3190      0.89265820
       7897.2660      0.87496990
       7899.2130      0.85253370
       7901.1600      0.85471840
       7903.1071      0.87855840
       7905.0541      0.84681760
       7907.0011      0.85191910
       7908.9481      0.91274380
       7910.8951      0.87074470
       7912.8421      0.80719350
       7914.7891      0.82041780
       7916.7361      0.84560630
       7918.6831      0.87508370
       7920.6301      0.86735470
       7922.5771      0.85354530
       7924.5242      0.86150510
       7926.4712      0.84483620
       7928.4182      0.82881940
       7930.3652      0.83652970
       7932.3122      0.84512870
       7934.2592      0.85145150
       7936.2062      0.84783760
       7938.1532      0.83566520
       7940.1002      0.83176330
       7942.0472      0.84223910
       7943.9942      0.86036380
       7945.9413      0.87899620
       7947.8883      0.87922060
       7949.8353      0.86438510
       7951.7823      0.86683660
       7953.7293      0.84866360
       7955.6763      0.84569510
       7957.6233      0.83978470
       7959.5703      0.81820560
       7961.5173      0.84260790
       7963.4643      0.85542010
       7965.4113      0.82231710
       7967.3584      0.83907870
       7969.3054      0.82942750
       7971.2524      0.83157570
       7973.1994      0.86965170
       7975.1464      0.83519980
       7977.0934      0.83181200
       7979.0404      0.82483530
       7980.9874      0.80713950
       7982.9344      0.82298750
       7984.8814      0.82955780
       7986.8284      0.84164640
       7988.7755      0.85373220
       7990.7225      0.82399170
       7992.6695      0.83505320
       7994.6165      0.81934990
       7996.5635      0.82331440
       7998.5105      0.83368490
       8000.4575      0.84172630
       8002.4045      0.82273580
       8004.3515      0.79677900
       8006.2985      0.81720770
       8008.2456      0.81980960
       8010.1926      0.83946690
       8012.1396      0.86059000
       8014.0866      0.80890170
       8016.0336      0.83785210
       8017.9806      0.82008000
       8019.9276      0.83795640
       8021.8746      0.89234550
       8023.8216      0.80942610
       8025.7686      0.79227740
       8027.7156      0.78576230
       8029.6627      0.80911040
       8031.6097      0.83533430
       8033.5567      0.82110290
       8035.5037      0.81731440
       8037.4507      0.81033230
       8039.3977      0.84915050
       8041.3447      0.80626920
       8043.2917      0.81772840
       8045.2387      0.82821610
       8047.1857      0.82122510
       8049.1327      0.80319370
       8051.0798      0.80996350
       8053.0268      0.81591370
       8054.9738      0.82877630
       8056.9208      0.82843820
       8058.8678      0.80937200
       8060.8148      0.79918950
       8062.7618      0.77598410
       8064.7088      0.74915950
       8066.6558      0.75796700
       8068.6028      0.79631410
       8070.5498      0.77448930
       8072.4969      0.76893620
       8074.4439      0.78985450
       8076.3909      0.76107760
       8078.3379      0.75696710
       8080.2849      0.73230000
       8082.2319      0.69834800
       8084.1789      0.73540230
       8086.1259      0.75153240
       8088.0729      0.73239420
       8090.0199      0.69859620
       8091.9669      0.74214530
       8093.9140      0.74667080
       8095.8610      0.74653370
       8097.8080      0.76095610
       8099.7550      0.76210720
       8101.7020      0.73863900
       8103.6490      0.73211000
       8105.5960      0.73197780
       8107.5430      0.76733820
       8109.4900      0.74304090
       8111.4370      0.69844060
       8113.3840      0.72982270
       8115.3311      0.71326810
       8117.2781      0.71936600
       8119.2251      0.73959870
       8121.1721      0.75304520
       8123.1191      0.76565820
       8125.0661      0.73233440
       8127.0131      0.74053780
       8128.9601      0.72453390
       8130.9071      0.69487640
       8132.8541      0.72661960
       8134.8011      0.74611500
       8136.7482      0.76090160
       8138.6952      0.74241010
       8140.6422      0.71759500
       8142.5892      0.72884550
       8144.5362      0.75411810
       8146.4832      0.76830830
       8148.4302      0.74428270
       8150.3772      0.74826900
       8152.3242      0.73112590
       8154.2712      0.75134900
       8156.2182      0.75765200
       8158.1653      0.76558140
       8160.1123      0.71445770
       8162.0593      0.73522310
       8164.0063      0.77568120
       8165.9533      0.76003170
       8167.9003      0.77311540
       8169.8473      0.77886820
       8171.7943      0.79071480
       8173.7413      0.73645530
       8175.6883      0.70361770
       8177.6353      0.79061610
       8179.5824      0.82107840
       8181.5294      0.77650780
       8183.4764      0.75834570
       8185.4234      0.79585370
       8187.3704      0.79531740
       8189.3174      0.75701900
       8191.2644      0.79030860
       8193.2114      0.81689490
       8195.1584      0.85551460
       8197.1054      0.82834430
       8199.0524      0.83518920
       8200.9995      0.89294650
       8202.9465      0.88341280
       8204.8935      0.85608170
       8206.8405      0.85893940
       8208.7875      0.84381460
       8210.7345      0.80411350
       8212.6815      0.87444140
       8214.6285      0.88550350
       8216.5755      0.86543820
       8218.5225      0.83148780
       8220.4695      0.84888130
       8222.4166      0.79934050
       8224.3636      0.75053100
       8226.3106      0.73419230
       8228.2576      0.73913530
       8230.2046      0.80136440
       8232.1516      0.82037050
       8234.0986      0.83191740
       8236.0456      0.83961030
       8237.9926      0.85549630
       8239.9396      0.87854870
       8241.8866      0.92367390
       8243.8337      0.89101670
       8245.7807      0.93904650
       8247.7277      0.95099690
       8249.6747      0.90919010
       8251.6217      0.93841140
       8253.5687      0.92148270
       8255.5157      0.91991270
       8257.4627      0.91416460
       8259.4097      0.91283980
       8261.3567      0.93599250
       8263.3038      0.97632220
       8265.2508      0.90216420
       8267.1978      0.93582560
       8269.1448      0.89280480
       8271.0918      0.89589190
       8273.0388      0.89964000
       8274.9858      0.88987020
       8276.9328      0.87887740
       8278.8798      0.86147420
       8280.8268      0.92385920
       8282.7738      0.93047880
       8284.7209      0.92364550
       8286.6679      0.89324760
       8288.6149      0.92415220
       8290.5619      0.95896230
       8292.5089      0.90210160
       8294.4559      0.96080310
       8296.4029      0.99471590
       8298.3499      0.92555320
       8300.2969      0.93212270
       8302.2439      0.91081290
       8304.1909      0.90443190
       8306.1380      0.96608630
       8308.0850      0.95683430
       8310.0320      0.92163680
       8311.9790      0.90238580
       8313.9260      0.88075760
       8315.8730      0.88163980
       8317.8200      0.89160670
       8319.7670      0.89625420
       8321.7140      0.88754800
       8323.6610      0.89694110
       8325.6080      0.90722400
       8327.5551      0.90771300
       8329.5021      0.94978790
       8331.4491      0.96914150
       8333.3961      0.93843100
       8335.3431      0.86630430
       8337.2901      0.92909010
       8339.2371      0.97707040
       8341.1841      0.96338120
       8343.1311      0.93594000
       8345.0781      0.88574500
       8347.0251      0.85650280
       8348.9722      0.89022260
       8350.9192      0.91403620
       8352.8662      0.93961540
       8354.8132      0.89080490
       8356.7602      0.87659380
       8358.7072      0.99444440
       8360.6542      0.99471630
       8362.6012      0.93867780
       8364.5482      0.92149340
       8366.4952      0.90517360
       8368.4422      0.91393580
       8370.3893      0.96304860
       8372.3363      0.93175520
       8374.2833      0.92064060
       8376.2303      0.90506900
       8378.1773      0.88213510
       8380.1243      0.91231810
       8382.0713      0.93315890
       8384.0183      0.91343320
       8385.9653      0.91445260
       8387.9123      0.91737300
       8389.8593      0.94920930
       8391.8064       1.0430020
       8393.7534      0.93452350
       8395.7004      0.94633570
       8397.6474      0.93997160
       8399.5944      0.95583870
       8401.5414      0.90376930
       8403.4884      0.89588470
       8405.4354      0.90732450
       8407.3824      0.87796090
       8409.3294      0.94986750
       8411.2764      0.92443130
       8413.2235      0.93331200
       8415.1705      0.96148110
       8417.1175      0.94674700
       8419.0645      0.91731020
       8421.0115      0.91635340
       8422.9585      0.93231950
       8424.9055      0.91396200
       8426.8525      0.90744450
       8428.7995      0.90462830
       8430.7465      0.93404320
       8432.6935      0.94719990
       8434.6406      0.93272610
       8436.5876      0.87131650
       8438.5346      0.84818240
       8440.4816      0.91459130
       8442.4286      0.90007990
       8444.3756      0.87978260
       8446.3226      0.92653110
       8448.2696      0.93055930
       8450.2166      0.87780420
       8452.1636      0.88440650
       8454.1106      0.92525880
       8456.0577      0.91886580
       8458.0047      0.91471480
       8459.9517      0.90170300
       8461.8987      0.88393870
       8463.8457      0.89283580
       8465.7927      0.84503130
       8467.7397      0.82373580
       8469.6867      0.88324690
       8471.6337      0.89792410
       8473.5807      0.87980160
       8475.5277      0.85885630
       8477.4748      0.85985360
       8479.4218      0.88224500
       8481.3688      0.86264220
       8483.3158      0.86866420
       8485.2628      0.90109150
       8487.2098      0.86660180
       8489.1568      0.86629150
       8491.1038      0.89441530
       8493.0508      0.87415910
       8494.9978      0.87801220
       8496.9449      0.87012930
       8498.8919      0.86604860
       8500.8389      0.84716530
       8502.7859      0.80576690
       8504.7329      0.82162210
       8506.6799      0.83950190
       8508.6269      0.85509530
       8510.5739      0.85341370
       8512.5209      0.81194420
       8514.4679      0.80207940
       8516.4149      0.84178190
       8518.3620      0.88607600
       8520.3090      0.85703760
       8522.2560      0.80151480
       8524.2030      0.79708370
       8526.1500      0.82970470
       8528.0970      0.85173100
       8530.0440      0.85841640
       8531.9910      0.80837620
       8533.9380      0.78621530
       8535.8850      0.81718780
       8537.8320      0.84618910
       8539.7791      0.81595820
       8541.7261      0.78832360
       8543.6731      0.80719850
       8545.6201      0.82081890
       8547.5671      0.78430560
       8549.5141      0.80382820
       8551.4611      0.78662060
       8553.4081      0.79905720
       8555.3551      0.75926800
       8557.3021      0.74527950
       8559.2491      0.75972680
       8561.1962      0.80416220
